Index	Intensity	Weight
1	1	6.26364E-14
2	0.98	2.47702E-13
3	0.923	4.97425E-13
4	0.835	7.52711E-13
5	0.726	1.01914E-12
6	0.606	1.29773E-12
7	0.487	1.60805E-12
8	0.375	1.97213E-12
9	0.278	2.41563E-12
10	0.198	3.06948E-12
11	0.135	4.1663E-12
12	0.0889	6.59329E-12
13	0.0561	1.38005E-11
14	0.034	2.35293E-11
15	0.0198	2.67046E-11
16	0.0111	2.85888E-11
17	0.00598	3.05224E-11
18	0.00309	3.25306E-11
19	0.00153	3.44387E-11
20	0.000732	3.6235E-11
21	0.000335	3.82216E-11
22	0.000148	4.00511E-11
23	6.25E-05	4.2113E-11
24	2.54E-05	4.39541E-11
25	9.93E-06	4.5825E-11
26	3.73E-06	5.11434E-11
